 He Pressure=30. Path=1. cm
 Photon Energy (eV), Transmission
    10.000       1.0000    
    10.380       1.0000    
    10.760       1.0000    
    11.140       1.0000    
    11.520       1.0000    
    11.900       1.0000    
    12.280       1.0000    
    12.660       1.0000    
    13.040       1.0000    
    13.420       1.0000    
    13.800       1.0000    
    14.180       1.0000    
    14.560       1.0000    
    14.940       1.0000    
    15.320       1.0000    
    15.700       1.0000    
    16.080       1.0000    
    16.460       1.0000    
    16.840       1.0000    
    17.220       1.0000    
    17.600       1.0000    
    17.980       1.0000    
    18.360       1.0000    
    18.740       1.0000    
    19.120       1.0000    
    19.500       1.0000    
    19.880       1.0000    
    20.260       1.0000    
    20.640       1.0000    
    21.020       1.0000    
    21.400       1.0000    
    21.780       1.0000    
    22.160       1.0000    
    22.540       1.0000    
    22.920       1.0000    
    23.300       1.0000    
    23.680       1.0000    
    24.060       1.0000    
    24.440       1.0000    
    24.820      0.48609E-03
    25.200      0.59523E-03
    25.580      0.72285E-03
    25.960      0.87099E-03
    26.340      0.10417E-02
    26.720      0.12372E-02
    27.100      0.14597E-02
    27.480      0.17114E-02
    27.860      0.19945E-02
    28.240      0.23112E-02
    28.620      0.26638E-02
    29.000      0.30545E-02
    29.380      0.34855E-02
    29.760      0.39588E-02
    30.140      0.44679E-02
    30.520      0.50215E-02
    30.900      0.56215E-02
    31.280      0.62698E-02
    31.660      0.69678E-02
    32.040      0.77172E-02
    32.420      0.85193E-02
    32.800      0.93754E-02
    33.180      0.10286E-01
    33.560      0.11283E-01
    33.940      0.12374E-01
    34.320      0.13583E-01
    34.700      0.14866E-01
    35.080      0.16224E-01
    35.460      0.17657E-01
    35.840      0.19168E-01
    36.220      0.20755E-01
    36.600      0.22420E-01
    36.980      0.24162E-01
    37.360      0.25982E-01
    37.740      0.27880E-01
    38.120      0.29855E-01
    38.500      0.31907E-01
    38.880      0.34036E-01
    39.260      0.36241E-01
    39.640      0.38521E-01
    40.020      0.40875E-01
    40.400      0.43303E-01
    40.780      0.45803E-01
    41.160      0.48396E-01
    41.540      0.51109E-01
    41.920      0.53941E-01
    42.300      0.56884E-01
    42.680      0.59901E-01
    43.060      0.62992E-01
    43.440      0.66154E-01
    43.820      0.69386E-01
    44.200      0.72686E-01
    44.580      0.76052E-01
    44.960      0.79481E-01
    45.340      0.82973E-01
    45.720      0.86524E-01
    46.100      0.90133E-01
    46.480      0.93798E-01
    46.860      0.97517E-01
    47.240      0.10129    
    47.620      0.10511    
    48.000      0.10898    
    48.380      0.11289    
    48.760      0.11684    
    49.140      0.12084    
    49.520      0.12488    
    49.900      0.12894    
    50.280      0.13300    
    50.660      0.13709    
    51.040      0.14116    
    51.420      0.14526    
    51.800      0.14939    
    52.180      0.15353    
    52.560      0.15771    
    52.940      0.16190    
    53.320      0.16611    
    53.700      0.17034    
    54.080      0.17458    
    54.460      0.17884    
    54.840      0.18311    
    55.220      0.18739    
    55.600      0.19169    
    55.980      0.19599    
    56.360      0.20030    
    56.740      0.20461    
    57.120      0.20893    
    57.500      0.21326    
    57.880      0.21758    
    58.260      0.22191    
    58.640      0.22624    
    59.020      0.23056    
    59.400      0.23489    
    59.780      0.23921    
    60.160      0.24352    
    60.540      0.24784    
    60.920      0.25214    
    61.300      0.25647    
    61.680      0.26230    
    62.060      0.26811    
    62.440      0.27394    
    62.820      0.27977    
    63.200      0.28560    
    63.580      0.29141    
    63.960      0.29721    
    64.340      0.30300    
    64.720      0.30877    
    65.100      0.31452    
    65.480      0.32025    
    65.860      0.32596    
    66.240      0.33165    
    66.620      0.33732    
    67.000      0.34296    
    67.380      0.34858    
    67.760      0.35417    
    68.140      0.35973    
    68.520      0.36526    
    68.900      0.36994    
    69.280      0.37445    
    69.660      0.37893    
    70.040      0.38331    
    70.420      0.38765    
    70.800      0.39197    
    71.180      0.39626    
    71.560      0.40053    
    71.940      0.40477    
    72.320      0.40898    
    72.700      0.41316    
    73.080      0.41732    
    73.460      0.42145    
    73.840      0.42555    
    74.220      0.42962    
    74.600      0.43367    
    74.980      0.43769    
    75.360      0.44168    
    75.740      0.44564    
    76.120      0.44957    
    76.500      0.45348    
    76.880      0.45736    
    77.260      0.46121    
    77.640      0.46503    
    78.020      0.46882    
    78.400      0.47259    
    78.780      0.47632    
    79.160      0.48003    
    79.540      0.48371    
    79.920      0.48737    
    80.300      0.49099    
    80.680      0.49459    
    81.060      0.49816    
    81.440      0.50170    
    81.820      0.50521    
    82.200      0.50870    
    82.580      0.51216    
    82.960      0.51559    
    83.340      0.51899    
    83.720      0.52237    
    84.100      0.52572    
    84.480      0.52904    
    84.860      0.53256    
    85.240      0.53606    
    85.620      0.53952    
    86.000      0.54308    
    86.380      0.54681    
    86.760      0.55051    
    87.140      0.55417    
    87.520      0.55780    
    87.900      0.56140    
    88.280      0.56497    
    88.660      0.56850    
    89.040      0.57200    
    89.420      0.57547    
    89.800      0.57891    
    90.180      0.58232    
    90.560      0.58570    
    90.940      0.58905    
    91.320      0.59236    
    91.700      0.59565    
    92.080      0.59890    
    92.460      0.60213    
    92.840      0.60532    
    93.220      0.60849    
    93.600      0.61162    
    93.980      0.61473    
    94.360      0.61781    
    94.740      0.62086    
    95.120      0.62388    
    95.500      0.62687    
    95.880      0.62983    
    96.260      0.63238    
    96.640      0.63457    
    97.020      0.63674    
    97.400      0.63890    
    97.780      0.64097    
    98.160      0.64296    
    98.540      0.64493    
    98.920      0.64688    
    99.300      0.64908    
    99.680      0.65187    
    100.06      0.65464    
    100.44      0.65738    
    100.82      0.66011    
    101.20      0.66301    
    101.58      0.66588    
    101.96      0.66872    
    102.34      0.67153    
    102.72      0.67425    
    103.10      0.67692    
    103.48      0.67957    
    103.86      0.68220    
    104.24      0.68479    
    104.62      0.68737    
    105.00      0.68992    
    105.38      0.69244    
    105.76      0.69494    
    106.14      0.69741    
    106.52      0.69986    
    106.90      0.70229    
    107.28      0.70469    
    107.66      0.70707    
    108.04      0.70942    
    108.42      0.71175    
    108.80      0.71406    
    109.18      0.71635    
    109.56      0.71861    
    109.94      0.72086    
    110.32      0.72308    
    110.70      0.72528    
    111.08      0.72745    
    111.46      0.72961    
    111.84      0.73174    
    112.22      0.73386    
    112.60      0.73595    
    112.98      0.73802    
    113.36      0.74008    
    113.74      0.74211    
    114.12      0.74412    
    114.50      0.74612    
    114.88      0.74809    
    115.26      0.75004    
    115.64      0.75198    
    116.02      0.75390    
    116.40      0.75580    
    116.78      0.75768    
    117.16      0.75954    
    117.54      0.76139    
    117.92      0.76321    
    118.30      0.76502    
    118.68      0.76681    
    119.06      0.76859    
    119.44      0.77035    
    119.82      0.77209    
    120.20      0.77381    
    120.58      0.77552    
    120.96      0.77721    
    121.34      0.77889    
    121.72      0.78055    
    122.10      0.78219    
    122.48      0.78382    
    122.86      0.78543    
    123.24      0.78703    
    123.62      0.78861    
    124.00      0.79018    
    124.38      0.79173    
    124.76      0.79327    
    125.14      0.79479    
    125.52      0.79630    
    125.90      0.79780    
    126.28      0.79930    
    126.66      0.80085    
    127.04      0.80239    
    127.42      0.80391    
    127.80      0.80542    
    128.18      0.80691    
    128.56      0.80839    
    128.94      0.80986    
    129.32      0.81131    
    129.70      0.81275    
    130.08      0.81418    
    130.46      0.81559    
    130.84      0.81699    
    131.22      0.81838    
    131.60      0.81975    
    131.98      0.82111    
    132.36      0.82245    
    132.74      0.82379    
    133.12      0.82511    
    133.50      0.82642    
    133.88      0.82771    
    134.26      0.82900    
    134.64      0.83027    
    135.02      0.83153    
    135.40      0.83277    
    135.78      0.83401    
    136.16      0.83523    
    136.54      0.83645    
    136.92      0.83765    
    137.30      0.83884    
    137.68      0.84002    
    138.06      0.84119    
    138.44      0.84234    
    138.82      0.84349    
    139.20      0.84462    
    139.58      0.84575    
    139.96      0.84686    
    140.34      0.84797    
    140.72      0.84906    
    141.10      0.85015    
    141.48      0.85122    
    141.86      0.85229    
    142.24      0.85334    
    142.62      0.85438    
    143.00      0.85542    
    143.38      0.85644    
    143.76      0.85751    
    144.14      0.85857    
    144.52      0.85963    
    144.90      0.86067    
    145.28      0.86171    
    145.66      0.86273    
    146.04      0.86375    
    146.42      0.86476    
    146.80      0.86575    
    147.18      0.86674    
    147.56      0.86772    
    147.94      0.86869    
    148.32      0.86965    
    148.70      0.87060    
    149.08      0.87155    
    149.46      0.87248    
    149.84      0.87341    
    150.22      0.87432    
    150.60      0.87523    
    150.98      0.87613    
    151.36      0.87703    
    151.74      0.87791    
    152.12      0.87879    
    152.50      0.87965    
    152.88      0.88051    
    153.26      0.88137    
    153.64      0.88221    
    154.02      0.88305    
    154.40      0.88388    
    154.78      0.88470    
    155.16      0.88551    
    155.54      0.88632    
    155.92      0.88712    
    156.30      0.88791    
    156.68      0.88870    
    157.06      0.88947    
    157.44      0.89024    
    157.82      0.89101    
    158.20      0.89177    
    158.58      0.89252    
    158.96      0.89326    
    159.34      0.89400    
    159.72      0.89473    
    160.10      0.89546    
    160.48      0.89617    
    160.86      0.89688    
    161.24      0.89758    
    161.62      0.89828    
    162.00      0.89896    
    162.38      0.89965    
    162.76      0.90032    
    163.14      0.90099    
    163.52      0.90159    
    163.90      0.90220    
    164.28      0.90279    
    164.66      0.90338    
    165.04      0.90397    
    165.42      0.90455    
    165.80      0.90513    
    166.18      0.90570    
    166.56      0.90627    
    166.94      0.90684    
    167.32      0.90740    
    167.70      0.90795    
    168.08      0.90850    
    168.46      0.90905    
    168.84      0.90959    
    169.22      0.91013    
    169.60      0.91066    
    169.98      0.91119    
    170.36      0.91172    
    170.74      0.91224    
    171.12      0.91276    
    171.50      0.91327    
    171.88      0.91378    
    172.26      0.91428    
    172.64      0.91478    
    173.02      0.91528    
    173.40      0.91577    
    173.78      0.91626    
    174.16      0.91675    
    174.54      0.91723    
    174.92      0.91771    
    175.30      0.91818    
    175.68      0.91866    
    176.06      0.91912    
    176.44      0.91959    
    176.82      0.92005    
    177.20      0.92050    
    177.58      0.92096    
    177.96      0.92141    
    178.34      0.92185    
    178.72      0.92230    
    179.10      0.92274    
    179.48      0.92317    
    179.86      0.92361    
    180.24      0.92404    
    180.62      0.92447    
    181.00      0.92489    
    181.38      0.92531    
    181.76      0.92573    
    182.14      0.92615    
    182.52      0.92656    
    182.90      0.92699    
    183.28      0.92741    
    183.66      0.92784    
    184.04      0.92826    
    184.42      0.92867    
    184.80      0.92908    
    185.18      0.92949    
    185.56      0.92990    
    185.94      0.93030    
    186.32      0.93070    
    186.70      0.93110    
    187.08      0.93149    
    187.46      0.93188    
    187.84      0.93227    
    188.22      0.93265    
    188.60      0.93304    
    188.98      0.93341    
    189.36      0.93379    
    189.74      0.93416    
    190.12      0.93454    
    190.50      0.93490    
    190.88      0.93527    
    191.26      0.93563    
    191.64      0.93599    
    192.02      0.93635    
    192.40      0.93670    
    192.78      0.93706    
    193.16      0.93741    
    193.54      0.93775    
    193.92      0.93810    
    194.30      0.93844    
    194.68      0.93878    
    195.06      0.93911    
    195.44      0.93945    
    195.82      0.93978    
    196.20      0.94011    
    196.58      0.94044    
    196.96      0.94076    
    197.34      0.94109    
    197.72      0.94141    
    198.10      0.94172    
    198.48      0.94204    
    198.86      0.94235    
    199.24      0.94266    
    199.62      0.94297    
    200.00      0.94328    