 Ne Pressure=30. Path=1. cm
 Photon Energy (eV), Transmission
    10.000       1.0000    
    10.380       1.0000    
    10.760       1.0000    
    11.140       1.0000    
    11.520       1.0000    
    11.900       1.0000    
    12.280       1.0000    
    12.660       1.0000    
    13.040       1.0000    
    13.420       1.0000    
    13.800       1.0000    
    14.180       1.0000    
    14.560       1.0000    
    14.940       1.0000    
    15.320       1.0000    
    15.700       1.0000    
    16.080       1.0000    
    16.460       1.0000    
    16.840       1.0000    
    17.220       1.0000    
    17.600       1.0000    
    17.980       1.0000    
    18.360       1.0000    
    18.740       1.0000    
    19.120       1.0000    
    19.500       1.0000    
    19.880       1.0000    
    20.260       1.0000    
    20.640       1.0000    
    21.020       1.0000    
    21.400       1.0000    
    21.780      0.30001E-02
    22.160      0.14720E-02
    22.540      0.67502E-03
    22.920      0.41112E-03
    23.300      0.30533E-03
    23.680      0.24364E-03
    24.060      0.20249E-03
    24.440      0.17539E-03
    24.820      0.15600E-03
    25.200      0.14316E-03
    25.580      0.13331E-03
    25.960      0.12419E-03
    26.340      0.11748E-03
    26.720      0.11466E-03
    27.100      0.11438E-03
    27.480      0.11411E-03
    27.860      0.11385E-03
    28.240      0.11927E-03
    28.620      0.12658E-03
    29.000      0.13451E-03
    29.380      0.14314E-03
    29.760      0.15366E-03
    30.140      0.17106E-03
    30.520      0.19020E-03
    30.900      0.20241E-03
    31.280      0.20263E-03
    31.660      0.20200E-03
    32.040      0.20104E-03
    32.420      0.19999E-03
    32.800      0.19897E-03
    33.180      0.19796E-03
    33.560      0.19888E-03
    33.940      0.20112E-03
    34.320      0.20440E-03
    34.700      0.20768E-03
    35.080      0.21098E-03
    35.460      0.21428E-03
    35.840      0.21759E-03
    36.220      0.22081E-03
    36.600      0.22381E-03
    36.980      0.22618E-03
    37.360      0.22838E-03
    37.740      0.23057E-03
    38.120      0.23276E-03
    38.500      0.23495E-03
    38.880      0.23714E-03
    39.260      0.23953E-03
    39.640      0.24226E-03
    40.020      0.25063E-03
    40.400      0.26134E-03
    40.780      0.27234E-03
    41.160      0.28365E-03
    41.540      0.29525E-03
    41.920      0.31371E-03
    42.300      0.33823E-03
    42.680      0.36429E-03
    43.060      0.39186E-03
    43.440      0.41635E-03
    43.820      0.44022E-03
    44.200      0.45591E-03
    44.580      0.47194E-03
    44.960      0.48831E-03
    45.340      0.50503E-03
    45.720      0.52210E-03
    46.100      0.53907E-03
    46.480      0.55586E-03
    46.860      0.57188E-03
    47.240      0.58716E-03
    47.620      0.60267E-03
    48.000      0.61841E-03
    48.380      0.63437E-03
    48.760      0.65055E-03
    49.140      0.66497E-03
    49.520      0.67729E-03
    49.900      0.68633E-03
    50.280      0.69009E-03
    50.660      0.69382E-03
    51.040      0.69755E-03
    51.420      0.70125E-03
    51.800      0.70495E-03
    52.180      0.70864E-03
    52.560      0.71830E-03
    52.940      0.72845E-03
    53.320      0.74169E-03
    53.700      0.75631E-03
    54.080      0.77108E-03
    54.460      0.78598E-03
    54.840      0.80102E-03
    55.220      0.81621E-03
    55.600      0.83154E-03
    55.980      0.84700E-03
    56.360      0.86260E-03
    56.740      0.88305E-03
    57.120      0.90953E-03
    57.500      0.93665E-03
    57.880      0.96708E-03
    58.260      0.99815E-03
    58.640      0.10299E-02
    59.020      0.10622E-02
    59.400      0.10952E-02
    59.780      0.11289E-02
    60.160      0.11632E-02
    60.540      0.12094E-02
    60.920      0.12651E-02
    61.300      0.13225E-02
    61.680      0.13824E-02
    62.060      0.14441E-02
    62.440      0.14950E-02
    62.820      0.15289E-02
    63.200      0.15631E-02
    63.580      0.15978E-02
    63.960      0.16329E-02
    64.340      0.16685E-02
    64.720      0.17045E-02
    65.100      0.17409E-02
    65.480      0.17778E-02
    65.860      0.18151E-02
    66.240      0.18528E-02
    66.620      0.18910E-02
    67.000      0.19296E-02
    67.380      0.19687E-02
    67.760      0.20082E-02
    68.140      0.20481E-02
    68.520      0.20885E-02
    68.900      0.21293E-02
    69.280      0.21705E-02
    69.660      0.22122E-02
    70.040      0.22728E-02
    70.420      0.23358E-02
    70.800      0.24000E-02
    71.180      0.24907E-02
    71.560      0.25846E-02
    71.940      0.26810E-02
    72.320      0.27798E-02
    72.700      0.28811E-02
    73.080      0.29848E-02
    73.460      0.30870E-02
    73.840      0.31910E-02
    74.220      0.32973E-02
    74.600      0.33986E-02
    74.980      0.34997E-02
    75.360      0.36027E-02
    75.740      0.37077E-02
    76.120      0.38146E-02
    76.500      0.39235E-02
    76.880      0.40344E-02
    77.260      0.41472E-02
    77.640      0.42621E-02
    78.020      0.43790E-02
    78.400      0.44982E-02
    78.780      0.46194E-02
    79.160      0.47426E-02
    79.540      0.48681E-02
    79.920      0.49958E-02
    80.300      0.51255E-02
    80.680      0.52574E-02
    81.060      0.53913E-02
    81.440      0.55273E-02
    81.820      0.56654E-02
    82.200      0.58056E-02
    82.580      0.59480E-02
    82.960      0.60924E-02
    83.340      0.62390E-02
    83.720      0.63877E-02
    84.100      0.65386E-02
    84.480      0.66916E-02
    84.860      0.68468E-02
    85.240      0.70041E-02
    85.620      0.71636E-02
    86.000      0.73408E-02
    86.380      0.75449E-02
    86.760      0.77525E-02
    87.140      0.79637E-02
    87.520      0.81861E-02
    87.900      0.84152E-02
    88.280      0.86482E-02
    88.660      0.88853E-02
    89.040      0.91264E-02
    89.420      0.93716E-02
    89.800      0.96209E-02
    90.180      0.98743E-02
    90.560      0.10132E-01
    90.940      0.10393E-01
    91.320      0.10659E-01
    91.700      0.10929E-01
    92.080      0.11203E-01
    92.460      0.11481E-01
    92.840      0.11763E-01
    93.220      0.12050E-01
    93.600      0.12340E-01
    93.980      0.12635E-01
    94.360      0.12934E-01
    94.740      0.13237E-01
    95.120      0.13544E-01
    95.500      0.13856E-01
    95.880      0.14172E-01
    96.260      0.14482E-01
    96.640      0.14787E-01
    97.020      0.15096E-01
    97.400      0.15409E-01
    97.780      0.15697E-01
    98.160      0.15952E-01
    98.540      0.16211E-01
    98.920      0.16471E-01
    99.300      0.16779E-01
    99.680      0.17199E-01
    100.06      0.17626E-01
    100.44      0.18058E-01
    100.82      0.18497E-01
    101.20      0.18942E-01
    101.58      0.19394E-01
    101.96      0.19851E-01
    102.34      0.20315E-01
    102.72      0.20799E-01
    103.10      0.21292E-01
    103.48      0.21793E-01
    103.86      0.22300E-01
    104.24      0.22852E-01
    104.62      0.23463E-01
    105.00      0.24085E-01
    105.38      0.24716E-01
    105.76      0.25356E-01
    106.14      0.26006E-01
    106.52      0.26666E-01
    106.90      0.27336E-01
    107.28      0.28015E-01
    107.66      0.28703E-01
    108.04      0.29401E-01
    108.42      0.30109E-01
    108.80      0.30827E-01
    109.18      0.31554E-01
    109.56      0.32290E-01
    109.94      0.33036E-01
    110.32      0.33792E-01
    110.70      0.34557E-01
    111.08      0.35331E-01
    111.46      0.36114E-01
    111.84      0.36907E-01
    112.22      0.37709E-01
    112.60      0.38521E-01
    112.98      0.39342E-01
    113.36      0.40171E-01
    113.74      0.41011E-01
    114.12      0.41859E-01
    114.50      0.42716E-01
    114.88      0.43589E-01
    115.26      0.44473E-01
    115.64      0.45366E-01
    116.02      0.46268E-01
    116.40      0.47179E-01
    116.78      0.48125E-01
    117.16      0.49084E-01
    117.54      0.50052E-01
    117.92      0.51031E-01
    118.30      0.52018E-01
    118.68      0.53015E-01
    119.06      0.54020E-01
    119.44      0.55036E-01
    119.82      0.56060E-01
    120.20      0.57093E-01
    120.58      0.58135E-01
    120.96      0.59186E-01
    121.34      0.60246E-01
    121.72      0.61315E-01
    122.10      0.62393E-01
    122.48      0.63479E-01
    122.86      0.64574E-01
    123.24      0.65677E-01
    123.62      0.66789E-01
    124.00      0.67909E-01
    124.38      0.69037E-01
    124.76      0.70173E-01
    125.14      0.71317E-01
    125.52      0.72470E-01
    125.90      0.73630E-01
    126.28      0.74798E-01
    126.66      0.75974E-01
    127.04      0.77158E-01
    127.42      0.78350E-01
    127.80      0.79549E-01
    128.18      0.80755E-01
    128.56      0.81969E-01
    128.94      0.83189E-01
    129.32      0.84417E-01
    129.70      0.85652E-01
    130.08      0.86894E-01
    130.46      0.88142E-01
    130.84      0.89398E-01
    131.22      0.90660E-01
    131.60      0.91929E-01
    131.98      0.93204E-01
    132.36      0.94486E-01
    132.74      0.95839E-01
    133.12      0.97206E-01
    133.50      0.98580E-01
    133.88      0.99962E-01
    134.26      0.10135    
    134.64      0.10275    
    135.02      0.10415    
    135.40      0.10556    
    135.78      0.10698    
    136.16      0.10841    
    136.54      0.10984    
    136.92      0.11128    
    137.30      0.11272    
    137.68      0.11417    
    138.06      0.11562    
    138.44      0.11709    
    138.82      0.11855    
    139.20      0.12003    
    139.58      0.12151    
    139.96      0.12299    
    140.34      0.12448    
    140.72      0.12597    
    141.10      0.12747    
    141.48      0.12898    
    141.86      0.13049    
    142.24      0.13200    
    142.62      0.13352    
    143.00      0.13505    
    143.38      0.13657    
    143.76      0.13811    
    144.14      0.13965    
    144.52      0.14119    
    144.90      0.14273    
    145.28      0.14428    
    145.66      0.14584    
    146.04      0.14740    
    146.42      0.14896    
    146.80      0.15052    
    147.18      0.15209    
    147.56      0.15367    
    147.94      0.15524    
    148.32      0.15682    
    148.70      0.15841    
    149.08      0.15999    
    149.46      0.16158    
    149.84      0.16317    
    150.22      0.16477    
    150.60      0.16637    
    150.98      0.16797    
    151.36      0.16957    
    151.74      0.17118    
    152.12      0.17279    
    152.50      0.17440    
    152.88      0.17601    
    153.26      0.17763    
    153.64      0.17925    
    154.02      0.18087    
    154.40      0.18249    
    154.78      0.18411    
    155.16      0.18574    
    155.54      0.18734    
    155.92      0.18887    
    156.30      0.19041    
    156.68      0.19195    
    157.06      0.19348    
    157.44      0.19502    
    157.82      0.19656    
    158.20      0.19806    
    158.58      0.19953    
    158.96      0.20100    
    159.34      0.20247    
    159.72      0.20394    
    160.10      0.20541    
    160.48      0.20689    
    160.86      0.20836    
    161.24      0.20984    
    161.62      0.21131    
    162.00      0.21278    
    162.38      0.21426    
    162.76      0.21573    
    163.14      0.21721    
    163.52      0.21868    
    163.90      0.22016    
    164.28      0.22163    
    164.66      0.22310    
    165.04      0.22458    
    165.42      0.22605    
    165.80      0.22752    
    166.18      0.22900    
    166.56      0.23047    
    166.94      0.23194    
    167.32      0.23342    
    167.70      0.23489    
    168.08      0.23636    
    168.46      0.23783    
    168.84      0.23930    
    169.22      0.24077    
    169.60      0.24224    
    169.98      0.24371    
    170.36      0.24518    
    170.74      0.24664    
    171.12      0.24811    
    171.50      0.24958    
    171.88      0.25104    
    172.26      0.25250    
    172.64      0.25397    
    173.02      0.25543    
    173.40      0.25689    
    173.78      0.25835    
    174.16      0.26012    
    174.54      0.26206    
    174.92      0.26400    
    175.30      0.26594    
    175.68      0.26788    
    176.06      0.26982    
    176.44      0.27176    
    176.82      0.27395    
    177.20      0.27693    
    177.58      0.27991    
    177.96      0.28289    
    178.34      0.28587    
    178.72      0.28885    
    179.10      0.29184    
    179.48      0.29482    
    179.86      0.29683    
    180.24      0.29847    
    180.62      0.30011    
    181.00      0.30174    
    181.38      0.30338    
    181.76      0.30501    
    182.14      0.30664    
    182.52      0.30827    
    182.90      0.30992    
    183.28      0.31157    
    183.66      0.31321    
    184.04      0.31486    
    184.42      0.31650    
    184.80      0.31814    
    185.18      0.31978    
    185.56      0.32141    
    185.94      0.32305    
    186.32      0.32469    
    186.70      0.32632    
    187.08      0.32795    
    187.46      0.32958    
    187.84      0.33121    
    188.22      0.33283    
    188.60      0.33445    
    188.98      0.33607    
    189.36      0.33769    
    189.74      0.33931    
    190.12      0.34092    
    190.50      0.34253    
    190.88      0.34414    
    191.26      0.34575    
    191.64      0.34735    
    192.02      0.34893    
    192.40      0.35052    
    192.78      0.35210    
    193.16      0.35368    
    193.54      0.35526    
    193.92      0.35684    
    194.30      0.35841    
    194.68      0.35998    
    195.06      0.36154    
    195.44      0.36310    
    195.82      0.36466    
    196.20      0.36621    
    196.58      0.36776    
    196.96      0.36931    
    197.34      0.37086    
    197.72      0.37240    
    198.10      0.37394    
    198.48      0.37547    
    198.86      0.37700    
    199.24      0.37853    
    199.62      0.38006    
    200.00      0.38158    