 Ar Pressure=30. Path=1. cm
 Photon Energy (eV), Transmission
    10.000       1.0000    
    10.380       1.0000    
    10.760       1.0000    
    11.140       1.0000    
    11.520       1.0000    
    11.900       1.0000    
    12.280       1.0000    
    12.660       1.0000    
    13.040       1.0000    
    13.420       1.0000    
    13.800       1.0000    
    14.180       1.0000    
    14.560       1.0000    
    14.940       1.0000    
    15.320       1.0000    
    15.700       1.0000    
    16.080      0.99362E-14
    16.460      0.44121E-14
    16.840      0.19574E-14
    17.220      0.91741E-15
    17.600      0.44604E-15
    17.980      0.21711E-15
    18.360      0.10579E-15
    18.740      0.85707E-16
    19.120      0.93269E-16
    19.500      0.10133E-15
    19.880      0.10987E-15
    20.260      0.11996E-15
    20.640      0.13204E-15
    21.020      0.14511E-15
    21.400      0.15913E-15
    21.780      0.17419E-15
    22.160      0.20443E-15
    22.540      0.26485E-15
    22.920      0.35062E-15
    23.300      0.46104E-15
    23.680      0.60224E-15
    24.060      0.78190E-15
    24.440      0.10091E-14
    24.820      0.12946E-14
    25.200      0.17294E-14
    25.580      0.26615E-14
    25.960      0.44186E-14
    26.340      0.72266E-14
    26.720      0.11653E-13
    27.100      0.18536E-13
    27.480      0.29118E-13
    27.860      0.49187E-13
    28.240      0.98068E-13
    28.620      0.19758E-12
    29.000      0.38812E-12
    29.380      0.74428E-12
    29.760      0.13952E-11
    30.140      0.28900E-11
    30.520      0.74331E-11
    30.900      0.20206E-10
    31.280      0.52229E-10
    31.660      0.12870E-09
    32.040      0.30340E-09
    32.420      0.68593E-09
    32.800      0.14953E-08
    33.180      0.33300E-08
    33.560      0.76147E-08
    33.940      0.17244E-07
    34.320      0.37362E-07
    34.700      0.77664E-07
    35.080      0.15529E-06
    35.460      0.29944E-06
    35.840      0.56651E-06
    36.220      0.12670E-05
    36.600      0.39070E-05
    36.980      0.10861E-04
    37.360      0.27509E-04
    37.740      0.64074E-04
    38.120      0.17051E-03
    38.500      0.45282E-03
    38.880      0.11857E-02
    39.260      0.27317E-02
    39.640      0.56386E-02
    40.020      0.10586E-01
    40.400      0.18319E-01
    40.780      0.29548E-01
    41.160      0.44848E-01
    41.540      0.64582E-01
    41.920      0.88763E-01
    42.300      0.11722    
    42.680      0.14572    
    43.060      0.17582    
    43.440      0.20800    
    43.820      0.24121    
    44.200      0.27235    
    44.580      0.30038    
    44.960      0.31982    
    45.340      0.33925    
    45.720      0.35860    
    46.100      0.37259    
    46.480      0.38083    
    46.860      0.38753    
    47.240      0.39286    
    47.620      0.39814    
    48.000      0.40337    
    48.380      0.40757    
    48.760      0.41085    
    49.140      0.41399    
    49.520      0.41698    
    49.900      0.41992    
    50.280      0.42281    
    50.660      0.42434    
    51.040      0.42224    
    51.420      0.42015    
    51.800      0.41807    
    52.180      0.41601    
    52.560      0.41396    
    52.940      0.41193    
    53.320      0.40991    
    53.700      0.40790    
    54.080      0.40522    
    54.460      0.40171    
    54.840      0.39812    
    55.220      0.39397    
    55.600      0.38985    
    55.980      0.38575    
    56.360      0.38168    
    56.740      0.37763    
    57.120      0.37361    
    57.500      0.36962    
    57.880      0.36563    
    58.260      0.36167    
    58.640      0.35721    
    59.020      0.35244    
    59.400      0.34771    
    59.780      0.34300    
    60.160      0.33834    
    60.540      0.33370    
    60.920      0.32910    
    61.300      0.32454    
    61.680      0.32001    
    62.060      0.31552    
    62.440      0.31106    
    62.820      0.30664    
    63.200      0.30225    
    63.580      0.29790    
    63.960      0.29359    
    64.340      0.28940    
    64.720      0.28632    
    65.100      0.28326    
    65.480      0.28059    
    65.860      0.27867    
    66.240      0.27675    
    66.620      0.27485    
    67.000      0.27297    
    67.380      0.27109    
    67.760      0.26924    
    68.140      0.26739    
    68.520      0.26556    
    68.900      0.26374    
    69.280      0.26194    
    69.660      0.26014    
    70.040      0.25836    
    70.420      0.25660    
    70.800      0.25484    
    71.180      0.25310    
    71.560      0.25137    
    71.940      0.24965    
    72.320      0.24901    
    72.700      0.24843    
    73.080      0.24785    
    73.460      0.24733    
    73.840      0.24682    
    74.220      0.24631    
    74.600      0.24581    
    74.980      0.24531    
    75.360      0.24481    
    75.740      0.24431    
    76.120      0.24382    
    76.500      0.24333    
    76.880      0.24284    
    77.260      0.24235    
    77.640      0.24187    
    78.020      0.24139    
    78.400      0.24091    
    78.780      0.24043    
    79.160      0.23996    
    79.540      0.23993    
    79.920      0.24001    
    80.300      0.24008    
    80.680      0.24038    
    81.060      0.24095    
    81.440      0.24153    
    81.820      0.24210    
    82.200      0.24267    
    82.580      0.24324    
    82.960      0.24380    
    83.340      0.24437    
    83.720      0.24493    
    84.100      0.24549    
    84.480      0.24604    
    84.860      0.24660    
    85.240      0.24715    
    85.620      0.24770    
    86.000      0.24825    
    86.380      0.24879    
    86.760      0.24934    
    87.140      0.24988    
    87.520      0.25042    
    87.900      0.25096    
    88.280      0.25149    
    88.660      0.25203    
    89.040      0.25256    
    89.420      0.25309    
    89.800      0.25362    
    90.180      0.25414    
    90.560      0.25467    
    90.940      0.25519    
    91.320      0.25571    
    91.700      0.25623    
    92.080      0.25675    
    92.460      0.25726    
    92.840      0.25777    
    93.220      0.25828    
    93.600      0.25879    
    93.980      0.25930    
    94.360      0.25981    
    94.740      0.26031    
    95.120      0.26081    
    95.500      0.26131    
    95.880      0.26181    
    96.260      0.26245    
    96.640      0.26320    
    97.020      0.26394    
    97.400      0.26469    
    97.780      0.26567    
    98.160      0.26695    
    98.540      0.26823    
    98.920      0.26950    
    99.300      0.27077    
    99.680      0.27203    
    100.06      0.27329    
    100.44      0.27455    
    100.82      0.27580    
    101.20      0.27705    
    101.58      0.27830    
    101.96      0.27954    
    102.34      0.28078    
    102.72      0.28202    
    103.10      0.28325    
    103.48      0.28448    
    103.86      0.28571    
    104.24      0.28693    
    104.62      0.28815    
    105.00      0.28937    
    105.38      0.29058    
    105.76      0.29179    
    106.14      0.29300    
    106.52      0.29420    
    106.90      0.29540    
    107.28      0.29660    
    107.66      0.29779    
    108.04      0.29898    
    108.42      0.30016    
    108.80      0.30134    
    109.18      0.30252    
    109.56      0.30370    
    109.94      0.30487    
    110.32      0.30604    
    110.70      0.30721    
    111.08      0.30837    
    111.46      0.30953    
    111.84      0.31068    
    112.22      0.31184    
    112.60      0.31299    
    112.98      0.31413    
    113.36      0.31527    
    113.74      0.31641    
    114.12      0.31755    
    114.50      0.31868    
    114.88      0.31981    
    115.26      0.32094    
    115.64      0.32206    
    116.02      0.32318    
    116.40      0.32430    
    116.78      0.32541    
    117.16      0.32652    
    117.54      0.32763    
    117.92      0.32873    
    118.30      0.32983    
    118.68      0.33150    
    119.06      0.33321    
    119.44      0.33492    
    119.82      0.33663    
    120.20      0.33833    
    120.58      0.34025    
    120.96      0.34220    
    121.34      0.34415    
    121.72      0.34609    
    122.10      0.34802    
    122.48      0.34995    
    122.86      0.35187    
    123.24      0.35379    
    123.62      0.35571    
    124.00      0.35761    
    124.38      0.35951    
    124.76      0.36141    
    125.14      0.36330    
    125.52      0.36518    
    125.90      0.36706    
    126.28      0.36894    
    126.66      0.37080    
    127.04      0.37267    
    127.42      0.37452    
    127.80      0.37637    
    128.18      0.37822    
    128.56      0.38006    
    128.94      0.38189    
    129.32      0.38372    
    129.70      0.38554    
    130.08      0.38736    
    130.46      0.38917    
    130.84      0.39097    
    131.22      0.39277    
    131.60      0.39457    
    131.98      0.39635    
    132.36      0.39813    
    132.74      0.39991    
    133.12      0.40168    
    133.50      0.40344    
    133.88      0.40520    
    134.26      0.40696    
    134.64      0.40870    
    135.02      0.41044    
    135.40      0.41218    
    135.78      0.41391    
    136.16      0.41563    
    136.54      0.41735    
    136.92      0.41899    
    137.30      0.42056    
    137.68      0.42212    
    138.06      0.42368    
    138.44      0.42524    
    138.82      0.42679    
    139.20      0.42820    
    139.58      0.42955    
    139.96      0.43089    
    140.34      0.43224    
    140.72      0.43357    
    141.10      0.43491    
    141.48      0.43624    
    141.86      0.43756    
    142.24      0.43888    
    142.62      0.44020    
    143.00      0.44151    
    143.38      0.44282    
    143.76      0.44412    
    144.14      0.44542    
    144.52      0.44671    
    144.90      0.44800    
    145.28      0.44929    
    145.66      0.45057    
    146.04      0.45185    
    146.42      0.45312    
    146.80      0.45439    
    147.18      0.45566    
    147.56      0.45692    
    147.94      0.45817    
    148.32      0.45943    
    148.70      0.46067    
    149.08      0.46192    
    149.46      0.46316    
    149.84      0.46439    
    150.22      0.46562    
    150.60      0.46685    
    150.98      0.46807    
    151.36      0.46929    
    151.74      0.47051    
    152.12      0.47172    
    152.50      0.47293    
    152.88      0.47413    
    153.26      0.47533    
    153.64      0.47652    
    154.02      0.47771    
    154.40      0.47890    
    154.78      0.48008    
    155.16      0.48126    
    155.54      0.48244    
    155.92      0.48361    
    156.30      0.48478    
    156.68      0.48594    
    157.06      0.48710    
    157.44      0.48825    
    157.82      0.48941    
    158.20      0.49055    
    158.58      0.49170    
    158.96      0.49284    
    159.34      0.49397    
    159.72      0.49511    
    160.10      0.49624    
    160.48      0.49736    
    160.86      0.49848    
    161.24      0.49960    
    161.62      0.50071    
    162.00      0.50182    
    162.38      0.50293    
    162.76      0.50403    
    163.14      0.50513    
    163.52      0.50623    
    163.90      0.50732    
    164.28      0.50841    
    164.66      0.50949    
    165.04      0.51057    
    165.42      0.51165    
    165.80      0.51272    
    166.18      0.51379    
    166.56      0.51486    
    166.94      0.51592    
    167.32      0.51698    
    167.70      0.51804    
    168.08      0.51909    
    168.46      0.52014    
    168.84      0.52118    
    169.22      0.52223    
    169.60      0.52326    
    169.98      0.52430    
    170.36      0.52533    
    170.74      0.52636    
    171.12      0.52738    
    171.50      0.52840    
    171.88      0.52942    
    172.26      0.53044    
    172.64      0.53145    
    173.02      0.53246    
    173.40      0.53346    
    173.78      0.53446    
    174.16      0.53555    
    174.54      0.53668    
    174.92      0.53781    
    175.30      0.53893    
    175.68      0.54006    
    176.06      0.54117    
    176.44      0.54229    
    176.82      0.54342    
    177.20      0.54462    
    177.58      0.54582    
    177.96      0.54702    
    178.34      0.54821    
    178.72      0.54939    
    179.10      0.55057    
    179.48      0.55175    
    179.86      0.55293    
    180.24      0.55410    
    180.62      0.55526    
    181.00      0.55642    
    181.38      0.55758    
    181.76      0.55873    
    182.14      0.55988    
    182.52      0.56103    
    182.90      0.56217    
    183.28      0.56330    
    183.66      0.56444    
    184.04      0.56556    
    184.42      0.56669    
    184.80      0.56781    
    185.18      0.56893    
    185.56      0.57004    
    185.94      0.57115    
    186.32      0.57225    
    186.70      0.57335    
    187.08      0.57445    
    187.46      0.57554    
    187.84      0.57663    
    188.22      0.57772    
    188.60      0.57880    
    188.98      0.57988    
    189.36      0.58095    
    189.74      0.58202    
    190.12      0.58309    
    190.50      0.58415    
    190.88      0.58521    
    191.26      0.58626    
    191.64      0.58744    
    192.02      0.58881    
    192.40      0.59017    
    192.78      0.59152    
    193.16      0.59287    
    193.54      0.59422    
    193.92      0.59556    
    194.30      0.59689    
    194.68      0.59823    
    195.06      0.59960    
    195.44      0.60096    
    195.82      0.60232    
    196.20      0.60368    
    196.58      0.60503    
    196.96      0.60637    
    197.34      0.60771    
    197.72      0.60904    
    198.10      0.61036    
    198.48      0.61168    
    198.86      0.61300    
    199.24      0.61431    
    199.62      0.61561    
    200.00      0.61691    