 H Pressure=30. Path=1. cm
 Photon Energy (eV), Transmission
    10.000       1.0000    
    10.380       1.0000    
    10.760       1.0000    
    11.140       1.0000    
    11.520       1.0000    
    11.900       1.0000    
    12.280       1.0000    
    12.660       1.0000    
    13.040       1.0000    
    13.420       1.0000    
    13.800       1.0000    
    14.180       1.0000    
    14.560       1.0000    
    14.940       1.0000    
    15.320       1.0000    
    15.700       1.0000    
    16.080       1.0000    
    16.460       1.0000    
    16.840      0.32266    
    17.220      0.24043E-01
    17.600      0.30225E-01
    17.980      0.37301E-01
    18.360      0.45272E-01
    18.740      0.54129E-01
    19.120      0.63843E-01
    19.500      0.74453E-01
    19.880      0.86207E-01
    20.260      0.98877E-01
    20.640      0.11228    
    21.020      0.12635    
    21.400      0.14100    
    21.780      0.15615    
    22.160      0.17174    
    22.540      0.18768    
    22.920      0.20391    
    23.300      0.22035    
    23.680      0.23695    
    24.060      0.25363    
    24.440      0.27046    
    24.820      0.28741    
    25.200      0.30432    
    25.580      0.32114    
    25.960      0.33780    
    26.340      0.35429    
    26.720      0.37058    
    27.100      0.38662    
    27.480      0.40242    
    27.860      0.41793    
    28.240      0.43315    
    28.620      0.44807    
    29.000      0.46267    
    29.380      0.47695    
    29.760      0.49090    
    30.140      0.50401    
    30.520      0.51647    
    30.900      0.52853    
    31.280      0.54035    
    31.660      0.55195    
    32.040      0.56326    
    32.420      0.57427    
    32.800      0.58498    
    33.180      0.59541    
    33.560      0.60556    
    33.940      0.61543    
    34.320      0.62502    
    34.700      0.63435    
    35.080      0.64343    
    35.460      0.65227    
    35.840      0.66086    
    36.220      0.66920    
    36.600      0.67731    
    36.980      0.68519    
    37.360      0.69285    
    37.740      0.70029    
    38.120      0.70752    
    38.500      0.71454    
    38.880      0.72136    
    39.260      0.72799    
    39.640      0.73443    
    40.020      0.74068    
    40.400      0.74675    
    40.780      0.75266    
    41.160      0.75842    
    41.540      0.76406    
    41.920      0.76954    
    42.300      0.77486    
    42.680      0.78003    
    43.060      0.78506    
    43.440      0.78995    
    43.820      0.79471    
    44.200      0.79933    
    44.580      0.80383    
    44.960      0.80820    
    45.340      0.81245    
    45.720      0.81658    
    46.100      0.82060    
    46.480      0.82450    
    46.860      0.82830    
    47.240      0.83200    
    47.620      0.83560    
    48.000      0.83909    
    48.380      0.84250    
    48.760      0.84582    
    49.140      0.84905    
    49.520      0.85220    
    49.900      0.85526    
    50.280      0.85825    
    50.660      0.86116    
    51.040      0.86401    
    51.420      0.86677    
    51.800      0.86947    
    52.180      0.87209    
    52.560      0.87465    
    52.940      0.87714    
    53.320      0.87957    
    53.700      0.88194    
    54.080      0.88424    
    54.460      0.88649    
    54.840      0.88869    
    55.220      0.89083    
    55.600      0.89291    
    55.980      0.89495    
    56.360      0.89693    
    56.740      0.89887    
    57.120      0.90076    
    57.500      0.90260    
    57.880      0.90440    
    58.260      0.90616    
    58.640      0.90788    
    59.020      0.90955    
    59.400      0.91119    
    59.780      0.91278    
    60.160      0.91434    
    60.540      0.91587    
    60.920      0.91736    
    61.300      0.91882    
    61.680      0.92026    
    62.060      0.92166    
    62.440      0.92303    
    62.820      0.92438    
    63.200      0.92569    
    63.580      0.92698    
    63.960      0.92825    
    64.340      0.92948    
    64.720      0.93069    
    65.100      0.93187    
    65.480      0.93303    
    65.860      0.93416    
    66.240      0.93526    
    66.620      0.93634    
    67.000      0.93740    
    67.380      0.93844    
    67.760      0.93945    
    68.140      0.94044    
    68.520      0.94141    
    68.900      0.94236    
    69.280      0.94329    
    69.660      0.94420    
    70.040      0.94509    
    70.420      0.94596    
    70.800      0.94682    
    71.180      0.94765    
    71.560      0.94847    
    71.940      0.94928    
    72.320      0.95006    
    72.700      0.95083    
    73.080      0.95159    
    73.460      0.95233    
    73.840      0.95305    
    74.220      0.95376    
    74.600      0.95446    
    74.980      0.95514    
    75.360      0.95581    
    75.740      0.95647    
    76.120      0.95711    
    76.500      0.95774    
    76.880      0.95836    
    77.260      0.95897    
    77.640      0.95957    
    78.020      0.96015    
    78.400      0.96072    
    78.780      0.96129    
    79.160      0.96184    
    79.540      0.96238    
    79.920      0.96291    
    80.300      0.96343    
    80.680      0.96395    
    81.060      0.96445    
    81.440      0.96494    
    81.820      0.96543    
    82.200      0.96591    
    82.580      0.96638    
    82.960      0.96684    
    83.340      0.96729    
    83.720      0.96774    
    84.100      0.96818    
    84.480      0.96861    
    84.860      0.96904    
    85.240      0.96946    
    85.620      0.96987    
    86.000      0.97027    
    86.380      0.97067    
    86.760      0.97106    
    87.140      0.97144    
    87.520      0.97181    
    87.900      0.97218    
    88.280      0.97255    
    88.660      0.97290    
    89.040      0.97325    
    89.420      0.97360    
    89.800      0.97394    
    90.180      0.97427    
    90.560      0.97460    
    90.940      0.97492    
    91.320      0.97524    
    91.700      0.97555    
    92.080      0.97586    
    92.460      0.97616    
    92.840      0.97645    
    93.220      0.97675    
    93.600      0.97703    
    93.980      0.97731    
    94.360      0.97759    
    94.740      0.97787    
    95.120      0.97813    
    95.500      0.97840    
    95.880      0.97866    
    96.260      0.97892    
    96.640      0.97917    
    97.020      0.97942    
    97.400      0.97966    
    97.780      0.97990    
    98.160      0.98014    
    98.540      0.98037    
    98.920      0.98060    
    99.300      0.98083    
    99.680      0.98105    
    100.06      0.98127    
    100.44      0.98149    
    100.82      0.98170    
    101.20      0.98191    
    101.58      0.98212    
    101.96      0.98232    
    102.34      0.98252    
    102.72      0.98272    
    103.10      0.98291    
    103.48      0.98311    
    103.86      0.98329    
    104.24      0.98348    
    104.62      0.98366    
    105.00      0.98384    
    105.38      0.98402    
    105.76      0.98420    
    106.14      0.98437    
    106.52      0.98454    
    106.90      0.98471    
    107.28      0.98487    
    107.66      0.98504    
    108.04      0.98520    
    108.42      0.98535    
    108.80      0.98551    
    109.18      0.98567    
    109.56      0.98582    
    109.94      0.98597    
    110.32      0.98611    
    110.70      0.98626    
    111.08      0.98640    
    111.46      0.98655    
    111.84      0.98669    
    112.22      0.98682    
    112.60      0.98696    
    112.98      0.98709    
    113.36      0.98723    
    113.74      0.98736    
    114.12      0.98748    
    114.50      0.98761    
    114.88      0.98774    
    115.26      0.98786    
    115.64      0.98798    
    116.02      0.98810    
    116.40      0.98822    
    116.78      0.98834    
    117.16      0.98845    
    117.54      0.98857    
    117.92      0.98868    
    118.30      0.98879    
    118.68      0.98890    
    119.06      0.98901    
    119.44      0.98912    
    119.82      0.98922    
    120.20      0.98933    
    120.58      0.98943    
    120.96      0.98953    
    121.34      0.98963    
    121.72      0.98973    
    122.10      0.98983    
    122.48      0.98993    
    122.86      0.99002    
    123.24      0.99012    
    123.62      0.99021    
    124.00      0.99030    
    124.38      0.99039    
    124.76      0.99049    
    125.14      0.99058    
    125.52      0.99066    
    125.90      0.99075    
    126.28      0.99084    
    126.66      0.99092    
    127.04      0.99101    
    127.42      0.99109    
    127.80      0.99117    
    128.18      0.99126    
    128.56      0.99134    
    128.94      0.99142    
    129.32      0.99150    
    129.70      0.99157    
    130.08      0.99165    
    130.46      0.99173    
    130.84      0.99180    
    131.22      0.99187    
    131.60      0.99195    
    131.98      0.99202    
    132.36      0.99209    
    132.74      0.99216    
    133.12      0.99223    
    133.50      0.99230    
    133.88      0.99237    
    134.26      0.99244    
    134.64      0.99250    
    135.02      0.99257    
    135.40      0.99263    
    135.78      0.99270    
    136.16      0.99276    
    136.54      0.99282    
    136.92      0.99289    
    137.30      0.99295    
    137.68      0.99301    
    138.06      0.99307    
    138.44      0.99313    
    138.82      0.99319    
    139.20      0.99324    
    139.58      0.99330    
    139.96      0.99336    
    140.34      0.99341    
    140.72      0.99347    
    141.10      0.99353    
    141.48      0.99358    
    141.86      0.99363    
    142.24      0.99369    
    142.62      0.99374    
    143.00      0.99379    
    143.38      0.99384    
    143.76      0.99389    
    144.14      0.99394    
    144.52      0.99399    
    144.90      0.99404    
    145.28      0.99409    
    145.66      0.99414    
    146.04      0.99419    
    146.42      0.99423    
    146.80      0.99428    
    147.18      0.99433    
    147.56      0.99437    
    147.94      0.99442    
    148.32      0.99446    
    148.70      0.99451    
    149.08      0.99455    
    149.46      0.99459    
    149.84      0.99464    
    150.22      0.99468    
    150.60      0.99472    
    150.98      0.99476    
    151.36      0.99480    
    151.74      0.99484    
    152.12      0.99488    
    152.50      0.99492    
    152.88      0.99496    
    153.26      0.99500    
    153.64      0.99504    
    154.02      0.99508    
    154.40      0.99512    
    154.78      0.99515    
    155.16      0.99519    
    155.54      0.99523    
    155.92      0.99526    
    156.30      0.99530    
    156.68      0.99534    
    157.06      0.99537    
    157.44      0.99541    
    157.82      0.99544    
    158.20      0.99547    
    158.58      0.99551    
    158.96      0.99554    
    159.34      0.99558    
    159.72      0.99561    
    160.10      0.99564    
    160.48      0.99567    
    160.86      0.99570    
    161.24      0.99574    
    161.62      0.99577    
    162.00      0.99580    
    162.38      0.99583    
    162.76      0.99586    
    163.14      0.99589    
    163.52      0.99592    
    163.90      0.99595    
    164.28      0.99598    
    164.66      0.99601    
    165.04      0.99604    
    165.42      0.99607    
    165.80      0.99609    
    166.18      0.99612    
    166.56      0.99615    
    166.94      0.99618    
    167.32      0.99621    
    167.70      0.99623    
    168.08      0.99626    
    168.46      0.99629    
    168.84      0.99631    
    169.22      0.99634    
    169.60      0.99637    
    169.98      0.99639    
    170.36      0.99642    
    170.74      0.99644    
    171.12      0.99647    
    171.50      0.99649    
    171.88      0.99652    
    172.26      0.99654    
    172.64      0.99657    
    173.02      0.99659    
    173.40      0.99661    
    173.78      0.99664    
    174.16      0.99666    
    174.54      0.99668    
    174.92      0.99671    
    175.30      0.99673    
    175.68      0.99675    
    176.06      0.99677    
    176.44      0.99680    
    176.82      0.99682    
    177.20      0.99684    
    177.58      0.99686    
    177.96      0.99688    
    178.34      0.99690    
    178.72      0.99693    
    179.10      0.99695    
    179.48      0.99697    
    179.86      0.99699    
    180.24      0.99701    
    180.62      0.99703    
    181.00      0.99705    
    181.38      0.99707    
    181.76      0.99709    
    182.14      0.99711    
    182.52      0.99713    
    182.90      0.99714    
    183.28      0.99716    
    183.66      0.99718    
    184.04      0.99720    
    184.42      0.99722    
    184.80      0.99724    
    185.18      0.99725    
    185.56      0.99727    
    185.94      0.99729    
    186.32      0.99731    
    186.70      0.99733    
    187.08      0.99734    
    187.46      0.99736    
    187.84      0.99738    
    188.22      0.99739    
    188.60      0.99741    
    188.98      0.99743    
    189.36      0.99744    
    189.74      0.99746    
    190.12      0.99748    
    190.50      0.99749    
    190.88      0.99751    
    191.26      0.99752    
    191.64      0.99754    
    192.02      0.99756    
    192.40      0.99757    
    192.78      0.99759    
    193.16      0.99760    
    193.54      0.99762    
    193.92      0.99763    
    194.30      0.99765    
    194.68      0.99766    
    195.06      0.99767    
    195.44      0.99769    
    195.82      0.99770    
    196.20      0.99772    
    196.58      0.99773    
    196.96      0.99775    
    197.34      0.99776    
    197.72      0.99777    
    198.10      0.99779    
    198.48      0.99780    
    198.86      0.99781    
    199.24      0.99783    
    199.62      0.99784    
    200.00      0.99785    