 Xe Pressure=30. Path=1. cm
 Photon Energy (eV), Transmission
    10.000       1.0000    
    10.380       1.0000    
    10.760       1.0000    
    11.140       1.0000    
    11.520       1.0000    
    11.900       1.0000    
    12.280      0.76155    
    12.660      0.86017E-12
    13.040      0.47414E-22
    13.420      0.27690E-24
    13.800      0.97164E-26
    14.180      0.44940E-27
    14.560      0.37584E-27
    14.940      0.68713E-27
    15.320      0.15856E-26
    15.700      0.10343E-25
    16.080      0.76989E-25
    16.460      0.52449E-24
    16.840      0.66716E-23
    17.220      0.10665E-21
    17.600      0.13964E-20
    17.980      0.15240E-19
    18.360      0.14721E-18
    18.740      0.14068E-17
    19.120      0.11611E-16
    19.500      0.82749E-16
    19.880      0.51589E-15
    20.260      0.28447E-14
    20.640      0.14024E-13
    21.020      0.62353E-13
    21.400      0.25224E-12
    21.780      0.97048E-12
    22.160      0.48815E-11
    22.540      0.27557E-10
    22.920      0.13509E-09
    23.300      0.58287E-09
    23.680      0.22411E-08
    24.060      0.77594E-08
    24.440      0.24428E-07
    24.820      0.70532E-07
    25.200      0.18820E-06
    25.580      0.46732E-06
    25.960      0.10867E-05
    26.340      0.23797E-05
    26.720      0.49320E-05
    27.100      0.97479E-05
    27.480      0.18668E-04
    27.860      0.34237E-04
    28.240      0.60251E-04
    28.620      0.10207E-03
    29.000      0.16698E-03
    29.380      0.26450E-03
    29.760      0.40667E-03
    30.140      0.60829E-03
    30.520      0.88701E-03
    30.900      0.12634E-02
    31.280      0.17607E-02
    31.660      0.24046E-02
    32.040      0.32574E-02
    32.420      0.44312E-02
    32.800      0.60634E-02
    33.180      0.81204E-02
    33.560      0.10663E-01
    33.940      0.13748E-01
    34.320      0.17431E-01
    34.700      0.21760E-01
    35.080      0.26776E-01
    35.460      0.32513E-01
    35.840      0.38996E-01
    36.220      0.46240E-01
    36.600      0.54253E-01
    36.980      0.62007E-01
    37.360      0.69977E-01
    37.740      0.78178E-01
    38.120      0.86846E-01
    38.500      0.95963E-01
    38.880      0.10551    
    39.260      0.11441    
    39.640      0.12195    
    40.020      0.12885    
    40.400      0.13557    
    40.780      0.14239    
    41.160      0.14931    
    41.540      0.15632    
    41.920      0.16335    
    42.300      0.17040    
    42.680      0.17648    
    43.060      0.18233    
    43.440      0.18820    
    43.820      0.19410    
    44.200      0.20002    
    44.580      0.20595    
    44.960      0.21189    
    45.340      0.21784    
    45.720      0.22380    
    46.100      0.22879    
    46.480      0.23273    
    46.860      0.23654    
    47.240      0.24023    
    47.620      0.24391    
    48.000      0.24758    
    48.380      0.25113    
    48.760      0.25457    
    49.140      0.25692    
    49.520      0.25805    
    49.900      0.25917    
    50.280      0.26028    
    50.660      0.26138    
    51.040      0.26248    
    51.420      0.26349    
    51.800      0.26392    
    52.180      0.26435    
    52.560      0.26409    
    52.940      0.26377    
    53.320      0.26346    
    53.700      0.26315    
    54.080      0.26284    
    54.460      0.26254    
    54.840      0.26216    
    55.220      0.26139    
    55.600      0.26062    
    55.980      0.25943    
    56.360      0.25817    
    56.740      0.25692    
    57.120      0.25568    
    57.500      0.25445    
    57.880      0.25322    
    58.260      0.25201    
    58.640      0.25081    
    59.020      0.24962    
    59.400      0.24795    
    59.780      0.24257    
    60.160      0.23725    
    60.540      0.23119    
    60.920      0.22464    
    61.300      0.21802    
    61.680      0.20351    
    62.060      0.18946    
    62.440      0.15779    
    62.820      0.10724    
    63.200      0.67435E-01
    63.580      0.38650E-01
    63.960      0.19834E-01
    64.340      0.89232E-02
    64.720      0.34330E-02
    65.100      0.10965E-02
    65.480      0.45983E-03
    65.860      0.48415E-03
    66.240      0.50942E-03
    66.620      0.65829E-03
    67.000      0.98814E-03
    67.380      0.14471E-02
    67.760      0.20711E-02
    68.140      0.29010E-02
    68.520      0.39826E-02
    68.900      0.45531E-02
    69.280      0.50367E-02
    69.660      0.55580E-02
    70.040      0.44560E-02
    70.420      0.34534E-02
    70.800      0.26485E-02
    71.180      0.20091E-02
    71.560      0.15069E-02
    71.940      0.11172E-02
    72.320      0.81829E-03
    72.700      0.59191E-03
    73.080      0.42264E-03
    73.460      0.29776E-03
    73.840      0.20689E-03
    74.220      0.14171E-03
    74.600      0.95636E-04
    74.980      0.63565E-04
    75.360      0.41583E-04
    75.740      0.27373E-04
    76.120      0.18013E-04
    76.500      0.11684E-04
    76.880      0.76520E-05
    77.260      0.51361E-05
    77.640      0.34084E-05
    78.020      0.22355E-05
    78.400      0.14488E-05
    78.780      0.92748E-06
    79.160      0.58637E-06
    79.540      0.39937E-06
    79.920      0.27534E-06
    80.300      0.18841E-06
    80.680      0.12919E-06
    81.060      0.89067E-07
    81.440      0.60982E-07
    81.820      0.41460E-07
    82.200      0.27989E-07
    82.580      0.18760E-07
    82.960      0.12481E-07
    83.340      0.83560E-08
    83.720      0.56238E-08
    84.100      0.37601E-08
    84.480      0.24972E-08
    84.860      0.19043E-08
    85.240      0.14501E-08
    85.620      0.11015E-08
    86.000      0.83465E-09
    86.380      0.63088E-09
    86.760      0.47566E-09
    87.140      0.35775E-09
    87.520      0.26839E-09
    87.900      0.20084E-09
    88.280      0.14991E-09
    88.660      0.11161E-09
    89.040      0.82879E-10
    89.420      0.61388E-10
    89.800      0.45352E-10
    90.180      0.34507E-10
    90.560      0.28776E-10
    90.940      0.23982E-10
    91.320      0.19974E-10
    91.700      0.16760E-10
    92.080      0.14210E-10
    92.460      0.12043E-10
    92.840      0.10202E-10
    93.220      0.86391E-11
    93.600      0.73124E-11
    93.980      0.61872E-11
    94.360      0.52328E-11
    94.740      0.45596E-11
    95.120      0.40655E-11
    95.500      0.36247E-11
    95.880      0.32316E-11
    96.260      0.30809E-11
    96.640      0.31074E-11
    97.020      0.31341E-11
    97.400      0.31609E-11
    97.780      0.31878E-11
    98.160      0.32150E-11
    98.540      0.32422E-11
    98.920      0.32695E-11
    99.300      0.32969E-11
    99.680      0.33244E-11
    100.06      0.33520E-11
    100.44      0.33797E-11
    100.82      0.34175E-11
    101.20      0.35751E-11
    101.58      0.37390E-11
    101.96      0.39095E-11
    102.34      0.40868E-11
    102.72      0.45406E-11
    103.10      0.51229E-11
    103.48      0.57742E-11
    103.86      0.65019E-11
    104.24      0.73142E-11
    104.62      0.82200E-11
    105.00      0.92292E-11
    105.38      0.10353E-10
    105.76      0.11602E-10
    106.14      0.12990E-10
    106.52      0.14531E-10
    106.90      0.16240E-10
    107.28      0.18134E-10
    107.66      0.21401E-10
    108.04      0.26670E-10
    108.42      0.33145E-10
    108.80      0.41082E-10
    109.18      0.50785E-10
    109.56      0.63562E-10
    109.94      0.79424E-10
    110.32      0.98957E-10
    110.70      0.12295E-09
    111.08      0.15233E-09
    111.46      0.18821E-09
    111.84      0.23192E-09
    112.22      0.28503E-09
    112.60      0.34939E-09
    112.98      0.47412E-09
    113.36      0.69515E-09
    113.74      0.10111E-08
    114.12      0.14590E-08
    114.50      0.20894E-08
    114.88      0.29758E-08
    115.26      0.42099E-08
    115.64      0.59129E-08
    116.02      0.82461E-08
    116.40      0.11421E-07
    116.78      0.15714E-07
    117.16      0.21479E-07
    117.54      0.29172E-07
    117.92      0.39372E-07
    118.30      0.52814E-07
    118.68      0.70418E-07
    119.06      0.93345E-07
    119.44      0.12303E-06
    119.82      0.16127E-06
    120.20      0.21023E-06
    120.58      0.28136E-06
    120.96      0.37567E-06
    121.34      0.49841E-06
    121.72      0.65713E-06
    122.10      0.86111E-06
    122.48      0.12065E-05
    122.86      0.17122E-05
    123.24      0.24056E-05
    123.62      0.33472E-05
    124.00      0.46138E-05
    124.38      0.63015E-05
    124.76      0.85304E-05
    125.14      0.11450E-04
    125.52      0.15241E-04
    125.90      0.20126E-04
    126.28      0.26371E-04
    126.66      0.34300E-04
    127.04      0.44287E-04
    127.42      0.56779E-04
    127.80      0.72295E-04
    128.18      0.91439E-04
    128.56      0.11490E-03
    128.94      0.14348E-03
    129.32      0.17808E-03
    129.70      0.21972E-03
    130.08      0.26957E-03
    130.46      0.32889E-03
    130.84      0.39911E-03
    131.22      0.48180E-03
    131.60      0.57869E-03
    131.98      0.69167E-03
    132.36      0.82278E-03
    132.74      0.97429E-03
    133.12      0.11485E-02
    133.50      0.13481E-02
    133.88      0.15756E-02
    134.26      0.18340E-02
    134.64      0.21262E-02
    135.02      0.24555E-02
    135.40      0.28250E-02
    135.78      0.32384E-02
    136.16      0.36991E-02
    136.54      0.42108E-02
    136.92      0.47774E-02
    137.30      0.54026E-02
    137.68      0.60903E-02
    138.06      0.68447E-02
    138.44      0.76694E-02
    138.82      0.85686E-02
    139.20      0.95345E-02
    139.58      0.10576E-01
    139.96      0.11701E-01
    140.34      0.12913E-01
    140.72      0.14216E-01
    141.10      0.15613E-01
    141.48      0.17105E-01
    141.86      0.18696E-01
    142.24      0.20391E-01
    142.62      0.22193E-01
    143.00      0.24105E-01
    143.38      0.26129E-01
    143.76      0.28268E-01
    144.14      0.30524E-01
    144.52      0.32899E-01
    144.90      0.35395E-01
    145.28      0.38015E-01
    145.66      0.40758E-01
    146.04      0.43627E-01
    146.42      0.46622E-01
    146.80      0.49744E-01
    147.18      0.52993E-01
    147.56      0.56372E-01
    147.94      0.59877E-01
    148.32      0.63512E-01
    148.70      0.67274E-01
    149.08      0.71164E-01
    149.46      0.75179E-01
    149.84      0.79321E-01
    150.22      0.83586E-01
    150.60      0.87980E-01
    150.98      0.92520E-01
    151.36      0.97180E-01
    151.74      0.10196    
    152.12      0.10686    
    152.50      0.11187    
    152.88      0.11699    
    153.26      0.12243    
    153.64      0.12805    
    154.02      0.13379    
    154.40      0.13964    
    154.78      0.14559    
    155.16      0.15165    
    155.54      0.15782    
    155.92      0.16408    
    156.30      0.17043    
    156.68      0.17687    
    157.06      0.18340    
    157.44      0.19000    
    157.82      0.19669    
    158.20      0.20316    
    158.58      0.20955    
    158.96      0.21599    
    159.34      0.22248    
    159.72      0.22903    
    160.10      0.23561    
    160.48      0.24224    
    160.86      0.24799    
    161.24      0.25368    
    161.62      0.25940    
    162.00      0.26514    
    162.38      0.27090    
    162.76      0.27667    
    163.14      0.28245    
    163.52      0.28825    
    163.90      0.29405    
    164.28      0.29986    
    164.66      0.30568    
    165.04      0.31150    
    165.42      0.31732    
    165.80      0.32307    
    166.18      0.32839    
    166.56      0.33371    
    166.94      0.33903    
    167.32      0.34434    
    167.70      0.34965    
    168.08      0.35495    
    168.46      0.35997    
    168.84      0.36258    
    169.22      0.36519    
    169.60      0.36780    
    169.98      0.37039    
    170.36      0.37298    
    170.74      0.37557    
    171.12      0.37815    
    171.50      0.38072    
    171.88      0.38329    
    172.26      0.38585    
    172.64      0.38840    
    173.02      0.39095    
    173.40      0.39349    
    173.78      0.39602    
    174.16      0.39813    
    174.54      0.40000    
    174.92      0.40186    
    175.30      0.40372    
    175.68      0.40557    
    176.06      0.40742    
    176.44      0.40927    
    176.82      0.41065    
    177.20      0.41063    
    177.58      0.41062    
    177.96      0.41060    
    178.34      0.41058    
    178.72      0.41056    
    179.10      0.41054    
    179.48      0.41053    
    179.86      0.41051    
    180.24      0.41049    
    180.62      0.41047    
    181.00      0.41046    
    181.38      0.41044    
    181.76      0.41042    
    182.14      0.41040    
    182.52      0.41036    
    182.90      0.41004    
    183.28      0.40972    
    183.66      0.40940    
    184.04      0.40908    
    184.42      0.40877    
    184.80      0.40845    
    185.18      0.40813    
    185.56      0.40779    
    185.94      0.40740    
    186.32      0.40701    
    186.70      0.40661    
    187.08      0.40622    
    187.46      0.40583    
    187.84      0.40544    
    188.22      0.40505    
    188.60      0.40467    
    188.98      0.40428    
    189.36      0.40389    
    189.74      0.40350    
    190.12      0.40312    
    190.50      0.40273    
    190.88      0.40235    
    191.26      0.40197    
    191.64      0.40135    
    192.02      0.40037    
    192.40      0.39939    
    192.78      0.39842    
    193.16      0.39745    
    193.54      0.39648    
    193.92      0.39551    
    194.30      0.39454    
    194.68      0.39347    
    195.06      0.39207    
    195.44      0.39067    
    195.82      0.38928    
    196.20      0.38788    
    196.58      0.38649    
    196.96      0.38511    
    197.34      0.38372    
    197.72      0.38234    
    198.10      0.38096    
    198.48      0.37958    
    198.86      0.37821    
    199.24      0.37684    
    199.62      0.37547    
    200.00      0.37410    